time (s)	coil I (A)	last det (V)	int current (uC)
3336.414218	0.180391	510.742187	17.480469
3336.416220	0.178828	1.967104	0.326370
3337.485097	0.179172	186.621094	-139.355469
3337.487099	0.178322	1.961547	0.346082
3338.501628	0.173548	516.894531	17.871094
3338.503629	0.178902	516.894531	17.871094
3338.505629	0.177967	1.957639	0.336092
3339.573652	0.179707	180.371094	-149.511719
3339.575655	0.178653	1.965181	0.343563
3340.599690	0.179517	502.929687	17.871094
3340.601694	0.178483	1.963311	0.342931
3341.657726	0.179237	173.925781	-184.765625
3341.659726	0.178416	1.962575	0.756534
3342.693722	0.181027	491.406250	17.187500
3342.695725	0.180048	1.980530	0.346003
3343.741718	0.166431	178.710937	-155.859375
3343.743719	0.178787	178.710937	-155.859375
3343.745721	0.177859	1.956451	0.350047
3344.781757	0.173957	504.589844	14.355469
3344.783759	0.180565	504.589844	14.355469
3344.785759	0.179686	1.976542	0.329805
3345.833841	0.176642	187.304687	-142.089844
3345.835846	0.179247	1.971721	0.368138
3346.872800	0.180896	517.089844	14.062500
3346.874800	0.179798	1.977774	0.328537
3347.924817	0.155846	186.132812	-204.589844
3347.926820	0.179214	186.132812	-204.589844
3347.928820	0.178229	1.960519	0.361593
3348.961685	0.179288	498.730469	18.652344
3348.963687	0.178393	1.962318	0.329737
3350.017683	0.178075	194.824219	-147.753906
3350.019684	0.180522	1.985741	0.361340
3351.042611	0.154998	507.421875	18.261719
3351.044613	0.179205	507.421875	18.261719
3351.046613	0.178266	1.960927	0.332407
3352.113493	0.180122	189.648437	-170.996094
3352.115494	0.179400	1.973396	0.361414
3353.135531	0.178790	519.238281	17.382812
3353.137533	0.178093	1.959021	0.341776
3354.204093	0.179244	189.062500	-135.058594
3354.206096	0.178287	1.961157	0.353780
3355.229031	0.177713	489.550781	22.949219
3355.231034	0.177060	1.947660	0.348923
3356.291509	0.179327	181.738281	-168.945312
3356.293511	0.178326	1.961583	0.349043
3357.317540	0.180739	507.519531	19.140625
3357.319543	0.179728	1.977003	0.353911
3358.380077	0.179747	183.007812	-150.000000
3358.382079	0.178747	1.966218	0.352812
3359.406571	0.179309	511.132812	17.187500
3359.408573	0.180604	1.986645	0.351343
3360.471536	0.178246	182.324219	-156.250000
3360.473536	0.177523	1.952756	0.402519
3361.498051	0.182506	501.562500	18.066406
3361.500053	0.182281	2.005096	0.354151
3362.560044	0.178787	178.906250	-184.375000
3362.562046	0.177904	1.956948	0.567368
3363.590104	0.179746	507.128906	16.601562
3363.592106	0.178824	1.967059	0.361498
3364.650640	0.178576	181.250000	-167.187500
3364.652643	0.177813	1.955946	0.349678
3365.679159	0.179390	492.871094	19.335937
3365.683158	0.179044	1.969488	0.362632
3366.737167	0.166470	177.441406	-201.660156
3366.739170	0.179176	177.441406	-201.660156
3366.741170	0.178224	1.960466	0.355828
3367.767631	0.179601	482.617187	21.582031
3367.769635	0.180073	1.980805	0.360814
3368.829602	0.180259	177.636719	-207.617187
3368.831607	0.179191	1.971101	0.360262
3369.857656	0.178933	506.250000	18.750000
3369.859655	0.178034	1.958374	0.360700
3370.922210	0.179346	185.156250	-166.308594
3370.924213	0.178482	1.963302	0.363797
3371.944802	0.180472	488.085937	22.558594
3371.946806	0.179579	1.975372	0.363492
3373.012835	0.181771	186.035156	-184.667969
3373.014837	0.181055	1.991608	0.365884
3374.032872	0.179073	516.406250	18.554687
3374.034873	0.180396	1.984359	0.359812
3375.102914	0.181792	187.988281	-202.636719
3375.104916	0.180787	1.988657	0.369026
3376.124916	0.179732	497.167969	20.800781
3376.126920	0.179198	1.971180	0.346746
3377.190977	0.178825	194.824219	-186.328125
3377.192978	0.177973	1.957701	0.380798
3378.219523	0.178824	487.597656	21.289062
3378.221526	0.177929	1.957222	0.340041
3379.279530	0.179862	187.988281	-244.628906
3379.281534	0.179057	1.969630	0.382345
3380.315511	0.178977	505.468750	17.773437
3380.317512	0.178252	1.960767	0.628541
3381.362052	0.176891	192.187500	-194.042969
3381.364053	0.179298	1.972279	0.388864
3382.408072	0.179470	494.140625	18.261719
3382.410073	0.178667	1.965340	0.343814
3383.450099	0.178999	185.058594	-203.027344
3383.452101	0.177979	1.957772	0.388014
3384.496111	0.179954	497.265625	16.894531
3384.498114	0.178865	1.967520	0.353847
3385.542621	0.178437	184.960937	-177.636719
3385.544626	0.177681	1.954493	0.377197
3386.583163	0.177425	477.832031	21.093750
3386.585164	0.180072	1.980796	0.366941
3387.635650	0.179462	179.394531	-219.824219
3387.637653	0.178509	1.963594	0.366638
3388.670125	0.179526	473.925781	23.925781
3388.672126	0.178542	1.963958	0.371553
3389.730112	0.179153	189.062500	-156.445312
3389.734112	0.177558	1.953137	0.373447
3390.756120	0.174500	488.769531	23.925781
3390.758122	0.179171	1.970879	0.371939
3391.820134	0.177742	187.109375	-201.269531
3391.822136	0.180870	1.989570	0.376647
3392.844196	0.180487	505.078125	21.386719
3392.846198	0.179402	1.973423	0.368207
3393.911130	0.179419	193.652344	-188.085937
3393.913130	0.178401	1.962415	0.389050
3394.933668	0.177348	484.375000	23.437500
3394.935670	0.179388	1.973272	0.367257
3396.001624	0.179682	196.875000	-192.382812
3396.003626	0.178718	1.965899	0.629771
3397.026545	0.178428	509.570312	19.140625
3397.028548	0.179545	1.974991	0.359765
3398.088538	0.180264	200.000000	-186.132812
3398.090539	0.179426	1.973688	0.394832
3399.120559	0.179311	479.199219	23.144531
3399.122558	0.178495	1.963444	0.350715
3400.178568	0.179934	194.238281	-230.371094
3400.180568	0.179000	1.969000	0.398309
3401.210623	0.178890	505.273437	18.652344
3401.212623	0.177960	1.957559	0.536066
3402.268622	0.179047	196.289062	-218.750000
3402.270624	0.178067	1.958738	0.542544
3403.300627	0.179122	502.050781	18.847656
3403.302628	0.178173	1.959908	0.542282
3404.359596	0.178442	200.390625	-196.289062
3404.361599	0.177664	1.954307	0.400622
3405.390548	0.181183	477.832031	22.656250
3405.392550	0.180290	1.983189	0.356086
3406.450530	0.178287	189.550781	-265.722656
3406.452529	0.177660	1.954262	0.668411
3407.478546	0.174523	502.050781	19.238281
3407.480548	0.179001	1.969009	0.358762
3408.539583	0.182222	193.164062	-245.605469
3408.541586	0.181205	1.993256	0.398850
3409.567647	0.178358	507.031250	19.140625
3409.569650	0.180299	1.983286	0.362918
3410.629665	0.179651	200.390625	-197.265625
3410.631668	0.178583	1.964409	0.403858
3411.655640	0.175793	490.332031	21.777344
3411.657643	0.181955	490.332031	21.777344
3411.659643	0.181075	1.991830	0.362209
3412.721651	0.179025	195.996094	-219.140625
3412.723653	0.178037	1.958410	0.393236
3413.745671	0.181322	483.105469	23.730469
3413.747673	0.181405	1.995454	0.371351
3414.811730	0.180396	195.019531	-206.054687
3414.813732	0.179670	1.976365	0.396156
3415.836245	0.178912	467.089844	26.562500
3415.838248	0.178136	1.959491	0.375174
3416.902243	0.179360	186.132812	-242.285156
3416.904243	0.178305	1.961352	0.393279
3417.926718	0.180080	473.242187	26.269531
3417.928720	0.180585	1.986432	0.386036
3418.992758	0.178389	186.621094	-221.582031
3418.994760	0.177691	1.954599	0.384598
3420.022812	0.178576	483.398437	22.851562
3420.024816	0.177850	1.956354	0.389453
3421.074825	0.160970	181.640625	-245.605469
3421.076827	0.179890	181.640625	-245.605469
3421.078827	0.178961	1.968575	0.398215
3422.113316	0.180035	462.890625	23.339844
3422.115320	0.179047	1.969514	0.387940
3423.165315	0.178556	186.718750	-214.941406
3423.167317	0.177797	1.955769	0.395844
3424.203828	0.178882	459.765625	22.753906
3424.205830	0.179391	1.973299	0.392057
3425.253785	0.171548	188.281250	-218.359375
3425.255787	0.177742	1.955166	0.405989
3426.296351	0.180527	480.957031	20.214844
3426.298353	0.179636	1.975993	0.380274
3427.340866	0.175878	189.648437	-241.406250
3427.342868	0.179667	1.976338	0.412338
3428.386854	0.178546	482.324219	20.703125
3428.388856	0.177721	1.954936	0.372823
3429.435402	0.179719	197.753906	-225.390625
3429.437404	0.178758	1.966333	0.413795
3430.471921	0.179843	472.753906	23.437500
3430.473922	0.178730	1.966031	0.367749
3431.527962	0.179588	195.703125	-256.542969
3431.529966	0.178580	1.964383	0.443716
3432.560051	0.180250	464.843750	25.097656
3432.562051	0.179353	1.972882	0.372044
3433.620041	0.179058	204.980469	-202.929687
3433.622045	0.178096	1.959057	0.412786
3434.650058	0.179157	460.742187	26.855469
3434.652058	0.178304	1.961343	0.374244
3435.712026	1.254529	191.308594	-277.441406
3435.714028	0.178570	1.964268	0.407916
3436.737982	0.178952	482.617187	24.023437
3436.739984	0.178199	1.960191	0.380229
3437.802532	0.179895	197.656250	-231.640625
3437.804535	0.178978	1.968761	0.753896
3438.825073	0.181073	472.265625	26.367187
3438.827077	0.179997	1.979972	0.387758
3439.893079	0.179634	190.429687	-266.796875
3439.895081	0.178557	1.964126	0.404429
3440.915544	0.179363	475.585937	27.343750
3440.917546	0.178262	1.960882	0.389853
3441.981556	0.179081	189.648437	-267.578125
3441.983558	0.179170	1.970870	0.405953
3443.005557	0.178831	460.253906	28.808594
3443.007559	0.178959	1.968548	0.393669
3444.072450	0.178786	196.484375	-221.972656
3444.074450	0.177989	1.957878	0.406903
3445.097041	0.182063	476.171875	26.757812
3445.099043	0.181166	1.992822	0.393427
3446.161582	0.180361	193.066406	-248.632812
3446.163585	0.179240	1.971641	0.407485
3447.185614	0.181503	472.167969	27.050781
3447.187614	0.180550	1.986051	0.392237
3448.253653	0.179022	201.269531	-205.664062
3448.255653	0.178161	1.959766	0.407821
3449.275685	0.179545	478.808594	25.683594
3449.277688	0.178418	1.962602	0.394619
3450.342225	0.180081	190.820312	-282.226562
3450.344228	0.179022	1.969239	0.412609
3451.366235	0.179977	462.890625	27.636719
3451.368237	0.178942	1.968362	0.388918
3452.434266	0.178488	191.015625	-294.042969
3452.436270	0.177774	1.955512	0.672382
3453.458284	0.178957	472.070312	25.781250
3453.460284	0.177949	1.957435	0.381265
3454.520311	0.179496	196.875000	-271.777344
3454.522315	0.178456	1.963018	0.416789
3455.550312	0.178934	480.566406	23.925781
3455.552315	0.178075	1.958826	0.625303
3456.607233	0.165587	202.734375	-244.824219
3456.609236	0.178859	202.734375	-244.824219
3456.611235	0.177995	1.957949	0.422203
3457.641789	0.180806	480.761719	23.046875
3457.645789	0.178985	1.968832	0.382346
3458.697860	0.178492	200.683594	-250.683594
3458.699861	0.177706	1.954767	0.421811
3459.734423	0.179981	466.894531	24.609375
3459.736423	0.179105	1.970152	0.383224
3460.784444	0.180037	197.558594	-252.343750
3460.786446	0.179068	1.969745	0.426598
3461.826976	0.179446	465.917969	24.023437
3461.828979	0.178406	1.962469	0.388860
3462.873522	0.178488	194.824219	-245.507812
3462.875524	0.177707	1.954776	0.423401
3463.916029	0.179512	466.113281	23.632812
3463.918032	0.179010	1.969115	0.400170
3464.962545	0.180414	192.382812	-240.039062
3464.966546	0.178530	1.963825	0.420677
3466.005080	0.179370	450.878906	26.464844
3466.009079	0.177496	1.952454	0.403371
3467.055135	0.179426	192.968750	-231.152344
3467.057137	0.178451	1.962965	0.412303
3468.093673	0.179610	446.777344	28.613281
3468.095674	0.178644	1.965083	0.406537
3469.149729	0.178674	193.554687	-230.175781
3469.151731	0.177979	1.957772	0.409269
3470.181785	0.179897	445.898437	30.859375
3470.183785	0.178894	1.967830	0.518199
3471.239825	0.180627	185.644531	-289.648437
3471.241828	0.179615	1.975762	0.414445
3472.267808	0.174787	446.484375	32.128906
3472.271808	0.178311	1.961423	0.413860
3473.333830	0.179102	191.503906	-266.601562
3473.335833	0.178224	1.960466	0.411671
3474.359867	0.178254	463.085937	30.273437
3474.361868	0.178215	1.960368	0.409360
3475.422430	0.180072	195.117187	-261.816406
3475.424432	0.178972	1.968690	0.414562
3476.446528	0.179836	457.812500	30.957031
3476.448529	0.180416	1.984571	0.408179
3477.512536	0.179328	202.246094	-237.890625
3477.514535	0.178389	1.962283	0.494505
3478.539493	0.178178	440.722656	32.617187
3478.541496	0.177438	1.951816	0.404180
3479.601456	0.178662	195.312500	-288.867187
3479.603459	0.179254	1.971792	0.425026
3480.628331	0.178494	468.359375	28.222656
3480.630332	0.177643	1.954076	0.406042
3481.694885	0.178590	195.117187	-297.265625
3481.696886	0.177850	1.956354	0.568974
3482.718946	0.178517	461.328125	28.906250
3482.720954	0.177732	1.955051	0.406325
3483.781481	0.180722	203.320312	-256.152344
3483.783482	0.180980	1.990775	0.426474
3484.809972	0.178858	439.941406	32.421875
3484.811976	0.178139	1.959526	0.452148
3485.873967	0.182573	202.246094	-263.964844
3485.875971	0.181021	1.991236	0.429222
3486.897998	0.179044	464.062500	29.492187
3486.900001	0.179350	1.972855	0.404411
3487.960965	0.177232	194.921875	-298.730469
3487.962967	0.177793	1.955725	0.430267
3488.986925	0.176071	455.859375	30.273437
3488.988928	0.180171	1.981877	0.410199
3490.052966	0.182106	201.464844	-254.589844
3490.054968	0.181165	1.992813	0.432107
3491.077525	0.179222	466.308594	29.199219
3491.081524	0.177363	1.950992	0.413746
3492.143544	0.178669	199.609375	-255.273437
3492.145548	0.177819	1.956008	0.429231
3493.168059	0.180329	450.585937	32.519531
3493.170060	0.179345	1.972793	0.416511
3494.232044	0.181034	194.238281	-275.878906
3494.234046	0.180053	1.980583	0.422751
3495.260049	0.180787	446.191406	33.789062
3495.262050	0.179940	1.979343	0.419563
3496.320085	0.182762	195.507812	-260.156250
3496.322087	0.182027	2.002296	0.421222
3497.354626	0.170337	445.703125	32.421875
3497.356629	0.177874	1.956611	0.419304
3498.411183	0.178416	189.062500	-290.820312
3498.413183	0.177676	1.954440	0.572411
3499.445186	0.181486	430.468750	33.300781
3499.447188	0.180503	1.985537	0.420504
3500.497208	0.180209	192.675781	-273.437500
3500.499213	0.179243	1.971668	0.421032
3501.533232	2.067145	429.492187	31.933594
3501.538533	0.178878	429.492187	31.933594
3501.540534	0.178061	1.958667	0.417112
3502.586561	0.178038	193.652344	-273.632812
3502.588562	0.177319	1.950505	0.441355
3503.627072	0.175409	441.308594	29.492187
3503.629075	0.178806	1.966864	0.415127
3504.673087	0.179042	198.632812	-260.253906
3504.675090	0.178083	1.958915	0.435782
3505.719040	0.179401	447.558594	28.808594
3505.721040	0.178834	1.967175	0.412193
3506.763595	0.180021	197.558594	-285.449219
3506.765598	0.179056	1.969621	0.451416
3507.809595	0.178634	452.929687	29.003906
3507.811597	0.177787	1.955654	0.404783
3508.856114	0.180072	205.078125	-269.531250
3508.858116	0.179213	1.971340	0.448463
3509.899071	0.178015	446.972656	30.566406
3509.901072	0.177299	1.950292	0.402343
3510.947092	0.179164	197.460937	-320.703125
3510.949095	0.178206	1.960262	0.485874
3511.985978	0.180163	440.234375	31.933594
3511.987980	0.179216	1.971375	0.615950
3513.040057	0.178633	209.667969	-269.140625
3513.042057	0.177866	1.956531	0.442600
3514.074042	0.180817	430.957031	33.300781
3514.076044	0.179898	1.978873	0.406761
3515.130046	0.178585	198.339844	-329.101562
3515.132048	0.177723	1.954954	0.445526
3516.166049	0.178147	459.179687	30.078125
3516.168050	0.177484	1.952321	0.703289
3517.220099	0.180066	205.078125	-296.875000
3517.222100	0.179013	1.969142	0.444285
3518.254127	0.179645	426.269531	34.765625
3518.256129	0.178890	1.967786	0.407677
3519.312146	0.180833	199.414062	-324.609375
3519.314149	0.180065	1.980716	0.448060
3520.344186	0.179374	446.972656	31.738281
3520.346191	0.178600	1.964596	0.407850
3521.404667	0.178276	206.542969	-288.085937
3521.406669	0.177540	1.952942	0.636086
3522.435208	0.178641	443.359375	32.519531
3522.437211	0.177775	1.955530	0.382586
3523.489802	1.649649	206.347656	-295.605469
3523.491806	0.179993	1.979919	0.456705
3524.523901	0.179300	425.097656	34.960937
3524.525903	0.178424	1.962664	0.645219
3525.577879	0.170918	202.148437	-318.847656
3525.579880	0.178857	202.148437	-318.847656
3525.581879	0.177943	1.957373	0.468859
3526.612804	0.180398	453.320312	31.445312
3526.614804	0.179335	1.972687	0.405990
3527.669741	0.180498	210.546875	-281.542969
3527.671741	0.179494	1.974433	0.451710
3528.704281	0.174788	434.863281	34.277344
3528.706281	0.179399	1.973387	0.400185
3529.760280	0.180372	200.878906	-325.390625
3529.762281	0.179251	1.971765	0.440511
3530.796283	0.179204	426.269531	35.058594
3530.798286	0.178209	1.960297	0.405771
3531.848281	0.181087	198.730469	-336.425781
3531.850284	0.180065	1.980716	0.458856
3532.886294	0.179379	428.320312	34.277344
3532.888296	0.180271	1.982976	0.409726
3533.938347	0.179174	210.742187	-277.832031
3533.940349	0.178345	1.961795	0.456181
3534.978368	0.180786	434.082031	33.496094
3534.980369	0.179734	1.977074	0.410173
3536.024396	0.182265	206.933594	-283.105469
3536.026398	0.181620	1.997820	0.456498
3537.071366	0.178849	415.625000	35.058594
3537.073369	0.178009	1.958100	0.411502
3538.113397	0.181361	198.828125	-306.445312
3538.115400	0.180619	1.986805	0.459205
3539.159415	0.180340	440.039062	31.054687
3539.161418	0.180448	1.984926	0.418085
3540.206369	0.177589	201.660156	-282.812500
3540.208376	0.176958	1.946534	0.463167
3541.250879	0.180900	427.246094	33.105469
3541.252881	0.181566	1.997227	0.414127
3542.294885	0.181506	193.066406	-315.625000
3542.296886	0.180501	1.985511	0.432727
3543.344908	0.177792	410.546875	36.035156
3543.346908	0.177173	1.948901	0.420567
3544.384937	0.172183	200.878906	-275.390625
3544.386939	0.179794	200.878906	-275.390625
3544.388938	0.178930	1.968229	0.445521
3545.430921	0.178301	426.660156	34.765625
3545.432925	0.177567	1.953234	0.417273
3546.479445	0.180113	188.085937	-341.210937
3546.481447	0.179238	1.971615	0.452487
3547.517425	0.179222	405.371094	39.550781
3547.519426	0.178328	1.961609	0.430847
3548.571438	0.179355	200.390625	-284.570312
3548.573442	0.178391	1.962300	0.441392
3549.604013	0.184584	418.066406	40.039062
3549.606013	0.183776	2.021536	0.443102
3550.662035	0.180471	192.871094	-329.687500
3550.664036	0.179431	1.973742	0.443587
3551.694493	0.179070	433.984375	38.671875
3551.696494	0.178253	1.960785	0.447989
3552.753046	0.176874	199.707031	-303.808594
3552.757046	0.178188	1.960067	0.434769
3553.785074	0.178666	434.570312	38.671875
3553.787076	0.177895	1.956841	0.436629
3554.845090	0.178228	204.296875	-288.964844
3554.847093	0.177522	1.952747	0.461024
3555.871633	0.180685	424.023437	39.453125
3555.873635	0.179842	1.978261	0.449859
3556.935645	0.178379	204.199219	-295.214844
3556.937647	0.177676	1.954440	0.471477
3557.964178	0.178953	409.765625	41.113281
3557.966181	0.178215	1.960368	0.445028
3559.022631	0.181484	198.632812	-326.660156
3559.024633	0.180494	1.985431	0.464722
3560.051549	0.181237	436.718750	37.304687
3560.055548	0.179360	1.972962	0.441474
3561.114510	0.179214	203.027344	-307.421875
3561.116512	0.178285	1.961139	0.544987
3562.142530	0.179927	429.589844	38.574219
3562.144532	0.178842	1.967263	0.438171
3563.203059	0.179975	205.664062	-294.433594
3563.205061	0.178962	1.968584	0.467597
3564.233588	0.179372	414.843750	40.820312
3564.235590	0.178340	1.961742	0.431979
3565.295615	0.180445	192.089844	-350.488281
3565.299615	0.178930	1.968229	0.455957
3566.324489	0.180478	424.902344	39.550781
3566.328489	0.178799	1.966785	0.434463
3567.387085	0.177525	203.906250	-297.167969
3567.389089	0.177514	1.952649	0.459306
3568.413633	0.179806	422.363281	40.429687
3568.415635	0.178719	1.965907	0.444587
3569.474162	0.178844	199.511719	-312.500000
3569.476165	0.178029	1.958321	0.452168
3570.506716	0.180063	421.777344	40.234375
3570.508718	0.179159	1.970746	0.435967
3571.561261	0.178347	193.847656	-334.570312
3571.563263	0.178966	1.968628	0.453619
3572.599306	0.178729	394.921875	42.968750
3572.601307	0.178053	1.958587	0.489491
3573.649282	0.180761	202.734375	-292.675781
3573.651284	0.179947	1.979422	0.452669
3574.690201	0.178413	415.429687	38.183594
3574.692202	0.177667	1.954333	0.439437
3575.740723	0.178511	202.343750	-294.238281
3575.742725	0.177781	1.955592	0.449722
3576.781636	0.178558	417.773437	36.621094
3576.783639	0.178527	1.963798	0.439753
3577.826187	0.179473	199.414062	-308.007812
3577.828188	0.179442	1.973866	0.465855
3578.870747	0.179921	419.824219	35.546875
3578.872748	0.179499	1.974486	0.444877
3579.917295	0.178259	199.414062	-313.769531
3579.919299	0.177530	1.952835	0.464705
3580.961849	0.180071	410.937500	36.523437
3580.963851	0.179383	1.973210	0.433058
3582.005878	0.180693	198.730469	-324.804687
3582.007880	0.179642	1.976063	0.460997
3583.053886	0.450129	415.234375	36.035156
3583.055889	0.177822	1.956044	0.424938
3584.094427	0.175056	201.757812	-325.390625
3584.096431	0.181569	201.757812	-325.390625
3584.098430	0.180648	1.987133	0.478080
3585.144444	0.178332	421.875000	35.253906
3585.146446	0.177576	1.953341	0.428588
3586.186956	0.180202	210.253906	-302.832031
3586.188960	0.179247	1.971712	0.487171
3587.233483	0.178521	418.750000	36.035156
3587.235485	0.177725	1.954980	0.417859
3588.279987	0.178663	209.570312	-314.257812
3588.281989	0.177887	1.956761	0.464635
3589.322566	0.178552	427.636719	35.351562
3589.324568	0.177767	1.955432	0.424213
3590.367506	0.174624	207.910156	-328.710937
3590.369508	0.179110	1.970205	0.481462
3591.409577	0.179475	408.789062	38.378906
3591.411581	0.178376	1.962132	0.423964
3592.459591	1.516246	207.128906	-335.742187
3592.461593	0.178057	1.958623	0.469974
3593.501619	0.180784	406.933594	39.062500
3593.503619	0.179968	1.979644	0.418429
3594.549653	0.180937	217.675781	-297.558594
3594.551655	0.179867	1.978536	0.476935
3595.589697	0.179573	421.582031	37.304687
3595.591698	0.178527	1.963798	0.429471
3596.640213	0.177486	202.148437	-358.886719
3596.642216	0.178876	1.967636	0.488764
3597.678166	0.179032	427.832031	36.425781
3597.680166	0.179293	1.972226	0.429442
3598.732166	0.178216	203.417969	-355.078125
3598.734169	0.177494	1.952437	0.477310
3599.768184	0.170716	403.320312	40.136719
3599.770185	0.179765	403.320312	40.136719
3599.772185	0.178857	1.967432	0.429445
3600.820204	0.179602	213.867187	-317.480469
3600.824205	0.178040	1.958445	0.483001
3601.860776	0.177362	413.769531	39.550781
3601.862779	0.179214	1.971349	0.425718
3602.908795	0.179651	214.160156	-316.796875
3602.910796	0.178716	1.965872	0.484051
3603.953346	0.179430	418.652344	37.792969
3603.955348	0.179401	1.973414	0.425043
3604.997837	1.366467	213.281250	-315.722656
3604.999841	0.179589	1.975479	0.489148
3606.042341	0.180854	424.511719	36.816406
3606.044345	0.179863	1.978492	0.423927
3607.088337	0.179559	199.316406	-362.500000
3607.090340	0.178675	1.965429	0.482453
3608.132359	0.174268	404.296875	38.671875
3608.134363	0.179254	404.296875	38.671875
3608.136363	0.178364	1.962008	0.432099
3609.176408	0.181662	199.804687	-354.980469
3609.178411	0.180674	1.987416	0.480086
3610.226430	0.178790	412.402344	37.500000
3610.228432	0.177937	1.957302	0.429526
3611.268961	0.177813	203.515625	-330.664062
3611.270964	0.177195	1.949140	0.479729
3612.317490	0.178469	406.347656	38.281250
3612.321491	0.177024	1.947261	0.430948
3613.354047	0.169150	200.976562	-335.546875
3613.356050	0.180163	200.976562	-335.546875
3613.358050	0.179201	1.971207	0.481941
3614.406065	0.903597	403.320312	38.964844
3614.408067	0.178539	1.963931	0.441885
3615.446580	0.179680	198.339844	-339.843750
3615.448582	0.178665	1.965313	0.469620
3616.496586	0.180016	395.996094	40.136719
3616.498587	0.179248	1.971730	0.441356
3617.536624	0.179098	195.800781	-349.023437
3617.538626	0.179237	1.971606	0.469978
3618.584669	0.179030	398.632812	40.332031
3618.586669	0.178179	1.959970	0.449387
3619.631181	0.179381	200.683594	-331.054687
3619.633185	0.178669	1.965358	0.470913
3620.673675	0.179010	402.539062	40.917969
3620.675675	0.178122	1.959340	0.450294
3621.722219	0.178815	191.308594	-370.117187
3621.724221	0.178007	1.958073	0.464714
3622.762205	0.178632	399.023437	42.871094
3622.764207	0.178595	1.964542	0.451488
3623.812769	0.179064	203.027344	-324.804687
3623.814771	0.178179	1.959970	0.569483
3624.849725	1.711060	386.425781	45.996094
3624.851726	0.180304	1.983348	0.454029
3625.903760	0.180190	194.042969	-365.429687
3625.905761	0.179206	1.971269	0.460731
3626.938682	0.180273	405.371094	44.042969
3626.940684	0.179182	1.971003	0.454703
3627.994677	0.180238	200.488281	-342.187500
3627.996680	0.179228	1.971508	0.511030
3629.028792	0.179541	401.855469	45.117187
3629.030800	0.178670	1.965367	0.459417
3630.085331	0.180374	194.335937	-369.531250
3630.087332	0.179496	1.974451	0.472113
3631.119293	0.178263	403.417969	44.824219
3631.121296	0.177448	1.951923	0.452513
3632.177844	0.178571	204.980469	-330.566406
3632.179846	0.177808	1.955884	0.471845
3633.206369	0.176021	389.160156	46.875000
3633.208372	0.179309	1.972394	0.459249
3634.264380	0.180557	201.757812	-345.898437
3634.266381	0.179881	1.978696	0.476475
3635.298424	0.704902	379.882812	48.535156
3635.300426	0.179891	1.978802	0.458961
3636.356406	0.179971	198.925781	-358.886719
3636.358408	0.178981	1.968796	0.473542
3637.386385	0.160202	381.738281	49.121094
3637.388387	0.178981	381.738281	49.121094
3637.390386	0.178032	1.958357	0.469316
3638.444831	0.178629	196.875000	-366.601562
3638.448830	0.178545	1.963993	0.482322
3639.479334	0.179265	402.246094	46.582031
3639.481336	0.178421	1.962628	0.803406
3640.535352	0.179960	197.753906	-363.183594
3640.537353	0.178803	1.966838	0.465589
3641.569392	0.180047	379.980469	49.609375
3641.571394	0.178939	1.968327	0.452640
3642.623909	0.180185	197.167969	-364.648437
3642.625911	0.180086	1.980947	0.473760
3643.660357	0.180795	381.640625	49.316406
3643.662358	0.179719	1.976914	0.456992
3644.712388	0.177389	207.324219	-323.925781
3644.714392	0.179064	1.969700	0.476193
3645.751325	0.180283	392.968750	46.386719
3645.753328	0.179236	1.971597	0.464380
3646.803870	0.179287	193.554687	-376.367187
3646.805871	0.178496	1.963461	0.477443
3647.842324	0.177800	377.343750	47.851562
3647.844324	0.178129	1.959420	0.463073
3648.890781	0.180533	205.078125	-333.886719
3648.892784	0.179395	1.973343	0.477742
3649.933334	0.166374	374.804687	46.875000
3649.935336	0.179716	374.804687	46.875000
3649.937337	0.178749	1.966235	0.460164
3650.980285	0.178843	196.875000	-364.257812
3650.982287	0.177841	1.956247	0.593994
3652.026328	0.179782	384.667969	44.824219
3652.028327	0.178749	1.966244	0.450220
3653.068393	0.179279	199.609375	-355.566406
3653.070396	0.178255	1.960803	0.477676
3654.116425	0.180221	395.996094	42.675781
3654.118427	0.179237	1.971606	0.449893
3655.157386	0.180484	196.484375	-368.164062
3655.159387	0.179471	1.974176	0.482100
3656.209401	0.179774	372.167969	45.214844
3656.211403	0.178967	1.968637	0.443038
3657.249413	0.179628	194.531250	-378.906250
3657.251415	0.178757	1.966324	0.493344
3658.297444	0.178813	393.750000	42.578125
3658.299445	0.178018	1.958197	0.445010
3659.343967	0.178762	207.128906	-343.359375
3659.345967	0.178070	1.958773	0.613433
3660.386495	0.179294	390.625000	43.359375
3660.388498	0.179247	1.971712	0.454687
3661.430497	0.180499	211.035156	-335.937500
3661.432499	0.179629	1.975922	0.495578
3662.473046	0.157591	400.781250	42.187500
3662.475045	0.179661	400.781250	42.187500
3662.477045	0.178675	1.965429	0.460955
3663.521994	0.179992	215.917969	-327.050781
3663.523999	0.179127	1.970401	0.763946
3664.566003	0.178615	395.605469	43.359375
3664.568005	0.177775	1.955521	0.443454
3665.610506	0.174780	199.902344	-383.007812
3665.612508	0.179633	199.902344	-383.007812
3665.614507	0.178779	1.966572	0.501614
3666.654482	0.180030	391.308594	44.238281
3666.656483	0.179018	1.969195	0.438941
3667.702528	0.179590	216.601562	-331.738281
3667.704529	0.178551	1.964064	0.494849
3668.743520	0.179215	380.566406	46.191406
3668.745522	0.179367	1.973042	0.442297
3669.796419	0.178217	213.574219	-344.140625
3669.798422	0.177510	1.952605	0.489328
3670.836985	0.178233	386.035156	45.019531
3670.838987	0.177494	1.952437	0.481167
3671.880995	0.154787	218.945312	-326.953125
3671.882998	0.179372	218.945312	-326.953125
3671.886996	0.177646	1.954103	0.504802
3672.925026	0.179960	383.105469	45.703125
3672.929024	0.178206	1.960271	0.514201
3673.975014	0.178267	213.769531	-345.507812
3673.977014	0.177584	1.953420	0.521513
3675.017551	0.178490	379.394531	46.679687
3675.019554	0.177911	1.957018	0.535120
3676.061573	0.179151	206.445312	-366.308594
3676.063575	0.179082	1.969904	0.492747
3677.107613	0.180084	387.792969	45.703125
3677.109613	0.179274	1.972013	0.439937
3678.153626	0.178440	210.644531	-350.097656
3678.155627	0.177721	1.954927	0.490143
3679.198144	0.178506	392.675781	44.433594
3679.202144	0.177155	1.948706	0.440701
3680.241093	0.180266	214.257812	-333.496094
3680.243094	0.179164	1.970799	0.499416
3681.288020	0.179164	367.578125	47.167969
3681.290022	0.178314	1.961450	0.455110
3682.334003	0.178346	194.921875	-389.843750
3682.336006	0.177699	1.954688	0.492339
3683.376450	0.181013	372.167969	46.582031
3683.378451	0.179975	1.979724	0.447997
3684.420466	0.181068	200.488281	-368.652344
3684.422470	0.180047	1.980521	0.487316
3685.468477	0.179306	387.402344	44.628906
3685.470480	0.178501	1.963506	0.451448
3686.510981	0.180507	202.734375	-357.421875
3686.512983	0.179461	1.974070	0.483979
3687.557017	0.179947	377.832031	46.191406
3687.559018	0.178896	1.967857	0.451218
3688.601021	0.181098	206.933594	-341.992187
3688.603023	0.180092	1.981017	0.484724
3689.647968	0.179177	377.343750	46.679687
3689.649972	0.178366	1.962026	0.457413
3690.694491	0.178456	204.003906	-352.832031
3690.696492	0.177731	1.955042	0.479063
3691.737023	0.179023	378.515625	47.558594
3691.739029	0.178271	1.960980	0.470312
3692.783540	0.178990	206.445312	-346.582031
3692.785542	0.178830	1.967130	0.488261
3693.824082	0.181379	370.996094	49.218750
3693.826083	0.180277	1.983047	0.461367
3694.876118	0.181085	204.003906	-354.785156
3694.880118	0.179376	1.973139	0.480444
3695.914657	0.179313	356.445312	52.441406
3695.916662	0.178414	1.962557	0.463797
3696.966681	0.182062	203.808594	-358.203125
3696.968684	0.181081	1.991892	0.476264
3698.002713	0.180276	363.476562	52.539062
3698.004715	0.179160	1.970755	0.460540
3699.060700	0.178870	197.949219	-379.589844
3699.062702	0.178170	1.959872	0.645998
3700.092757	0.178969	377.246094	51.171875
3700.094759	0.178098	1.959074	0.467808
3701.149292	1.568879	198.242187	-379.492187
3701.151294	0.178086	1.958950	0.472363
3702.181304	0.180385	379.199219	51.757812
3702.183307	0.179489	1.974380	0.472743
3703.239847	0.179800	202.636719	-366.503906
3703.241849	0.178824	1.967059	0.472836
3704.271909	0.180590	383.593750	51.269531
3704.273913	0.179775	1.977526	0.468859
3705.327900	0.166951	205.371094	-359.375000
3705.329902	0.179855	205.371094	-359.375000
3705.331902	0.178917	1.968087	0.483359
3706.359941	0.179081	379.980469	51.757812
3706.361943	0.179050	1.969550	0.478411
3707.418476	0.179992	207.519531	-353.125000
3707.420479	0.180144	1.981585	0.480547
3708.450507	0.180455	382.812500	51.660156
3708.452508	0.179471	1.974185	0.475837
3709.509014	0.171063	205.566406	-358.886719
3709.511016	0.179082	205.566406	-358.886719
3709.513016	0.178232	1.960554	0.483657
3710.541039	0.180901	376.953125	52.246094
3710.543040	0.179886	1.978749	0.464309
3711.600012	0.178938	202.832031	-368.066406
3711.602015	0.177997	1.957967	0.477775
3712.634077	0.180098	353.222656	55.664062
3712.636077	0.179318	1.972501	0.462758
3713.690063	0.178016	198.046875	-385.351562
3713.692066	0.177276	1.950035	0.477142
