time (s)	coil I (A)	last det (V)	int current (uC)
5516.781913	0.753978	599.218750	-4.296875
5516.783915	0.780561	599.218750	-4.296875
5516.785915	0.778031	8.558336	0.728639
5517.823897	0.278927	144.824219	158.496094
5517.825896	0.580450	144.824219	158.496094
5517.827899	0.775888	144.824219	158.496094
5517.829898	0.779996	144.824219	158.496094
5517.831898	0.777717	8.554889	0.749986
5518.867902	0.441035	613.671875	-8.789062
5518.869904	0.718591	613.671875	-8.789062
5518.871904	0.781788	613.671875	-8.789062
5518.873905	0.778937	8.568307	0.665753
5519.919924	0.342552	155.175781	149.121094
5519.921927	0.641011	155.175781	149.121094
5519.925925	0.779532	155.175781	149.121094
5519.927926	0.777406	8.551468	0.766700
5520.957908	0.444293	624.804687	-9.179687
5520.959911	0.720276	624.804687	-9.179687
5520.961911	0.781020	624.804687	-9.179687
5520.963910	0.778163	8.559798	0.719892
5522.017936	0.691490	144.824219	78.710937
5522.019938	0.781920	144.824219	78.710937
5522.021938	0.779078	8.569858	0.701809
5523.052403	0.428923	625.781250	-6.542969
5523.054405	0.710338	625.781250	-6.542969
5523.056404	0.781455	625.781250	-6.542969
5523.058404	0.778554	8.564096	0.666160
5524.103331	0.771340	162.988281	140.429687
5524.105333	0.780137	162.988281	140.429687
5524.107334	0.777712	8.554836	0.784809
5525.135810	0.722883	613.378906	-4.687500
5525.137811	0.781876	613.378906	-4.687500
5525.139811	0.779102	8.570124	0.705010
5526.201831	0.521791	153.710937	100.292969
5526.203833	0.759986	153.710937	100.292969
5526.205832	0.780754	153.710937	100.292969
5526.207831	0.778249	8.560738	0.709517
5527.227827	0.282492	613.281250	-3.027344
5527.229830	0.583859	613.281250	-3.027344
5527.231830	0.776397	613.281250	-3.027344
5527.233828	0.779891	613.281250	-3.027344
5527.235830	0.777499	8.552487	0.704436
5528.285831	0.690870	163.085937	147.851562
5528.287832	0.781939	163.085937	147.851562
5528.289831	0.779036	8.569397	0.779662
5529.313858	0.305346	604.687500	-2.246094
5529.315861	0.605971	604.687500	-2.246094
5529.317860	0.780171	604.687500	-2.246094
5529.321860	0.778588	8.564469	0.705593
5530.383870	0.672427	155.957031	115.820312
5530.385872	0.677640	155.957031	115.820312
5530.387873	0.778769	8.566455	0.749986
5531.412377	0.660315	610.937500	-2.734375
5531.414381	0.782400	610.937500	-2.734375
5531.416381	0.779946	8.579411	0.705017
5532.464391	0.253573	157.617187	122.851562
5532.468393	0.770868	157.617187	122.851562
5532.470393	0.780242	157.617187	122.851562
5532.472394	0.777855	8.556405	0.772041
5533.502442	0.780255	623.046875	-5.957031
5533.504444	0.777824	623.046875	-5.957031
5533.506445	0.776259	8.538849	0.693333
5534.564994	0.738129	145.605469	54.882812
5534.566996	0.781125	145.605469	54.882812
5534.568996	0.778411	8.562519	0.724137
5535.593478	0.449911	603.710937	-2.539062
5535.595479	0.723818	603.710937	-2.539062
5535.597480	0.780988	603.710937	-2.539062
5535.599477	0.778079	8.558868	0.686959
5536.645526	0.585772	161.425781	123.046875
5536.647528	0.777393	161.425781	123.046875
5536.649528	0.780668	161.425781	123.046875
5536.651527	0.778345	8.561793	0.944710
5537.687496	0.363417	605.273437	-4.687500
5537.689497	0.659803	605.273437	-4.687500
5537.691497	0.783358	605.273437	-4.687500
5537.693497	0.781060	8.591659	0.669464
5538.740053	0.753573	154.492187	105.371094
5538.742057	0.780496	154.492187	105.371094
5538.744054	0.777876	8.556635	0.726391
5539.776990	0.443885	597.460937	-4.687500
5539.780989	0.781074	597.460937	-4.687500
5539.782992	0.778247	597.460937	-4.687500
5539.784993	0.776472	8.541197	0.661031
5540.826991	0.427665	144.824219	96.777344
5540.830993	0.781484	144.824219	96.777344
5540.832992	0.778601	144.824219	96.777344
5540.834994	0.776741	8.544148	0.733039
5541.869024	0.289546	604.003906	-5.761719
5541.871043	0.590713	604.003906	-5.761719
5541.873049	0.778574	604.003906	-5.761719
5541.875050	0.780573	604.003906	-5.761719
5541.879047	0.776801	8.544813	0.721905
5542.915024	0.365000	142.382812	115.820312
5542.917027	0.661082	142.382812	115.820312
5542.919025	0.782696	142.382812	115.820312
5542.921025	0.780313	8.583443	0.718788
5543.957034	0.530411	578.222656	0.585937
5543.961034	0.780242	578.222656	0.585937
5543.965034	0.776168	578.222656	0.585937
5543.967036	0.775030	8.525333	0.743716
5545.015070	0.338414	148.437500	128.710937
5545.019069	0.782440	148.437500	128.710937
5545.021071	0.780817	148.437500	128.710937
5545.023072	0.778656	8.565213	0.683675
5546.042038	0.242267	590.332031	2.050781
5546.044039	0.545726	590.332031	2.050781
5546.046040	0.767579	590.332031	2.050781
5546.048040	0.779947	590.332031	2.050781
5546.050041	0.779856	8.578419	0.716265
5547.106034	0.332071	146.972656	85.351562
5547.108036	0.631364	146.972656	85.351562
5547.110038	0.780988	146.972656	85.351562
5547.112038	0.779437	8.573811	0.726068
5548.136077	0.545736	592.578125	-0.195312
5548.142078	0.777716	592.578125	-0.195312
5548.144079	0.776232	592.578125	-0.195312
5548.146080	0.776186	8.538051	0.769661
5549.194083	0.578851	146.093750	45.800781
5549.196086	0.775548	146.093750	45.800781
5549.198086	0.779921	146.093750	45.800781
5549.200085	0.777594	8.553533	0.909928
5550.226122	0.403650	596.972656	-2.539062
5550.230122	0.781999	596.972656	-2.539062
5550.232124	0.779154	596.972656	-2.539062
5550.234124	0.779087	8.569955	0.681420
5551.286159	0.757077	150.781250	61.816406
5551.288161	0.780523	150.781250	61.816406
5551.290161	0.777892	8.556812	0.730097
5552.324738	0.738576	563.085937	0.097656
5552.328736	0.778525	563.085937	0.097656
5552.330740	0.776829	8.545123	0.658381
5553.370745	0.619428	139.062500	55.175781
5553.372748	0.780174	139.062500	55.175781
5553.376746	0.777340	8.550741	0.736617
5554.414775	0.401166	568.945312	-0.292969
5554.416777	0.690569	568.945312	-0.292969
5554.418776	0.782654	568.945312	-0.292969
5554.420777	0.779880	8.578685	0.693336
5555.460772	0.397926	142.871094	91.210937
5555.462773	0.688182	142.871094	91.210937
5555.464775	0.782761	142.871094	91.210937
5555.466773	0.779968	8.579650	0.732258
5556.498802	0.351758	570.214844	2.343750
5556.500804	0.649446	570.214844	2.343750
5556.502805	0.782048	570.214844	2.343750
5556.504803	0.782122	8.603339	0.724422
5557.562795	0.778732	140.820312	74.609375
5557.564799	0.780332	140.820312	74.609375
5557.566798	0.777998	8.557973	0.697867
5558.588818	0.434295	578.027344	4.199219
5558.590820	0.714233	578.027344	4.199219
5558.592820	0.781986	578.027344	4.199219
5558.594820	0.779070	8.569769	0.706985
5559.650828	0.527998	144.921875	64.257812
5559.652830	0.762214	144.921875	64.257812
5559.654830	0.780572	144.921875	64.257812
5559.656831	0.778075	8.558825	0.721043
5560.678835	0.361258	578.417969	3.613281
5560.680835	0.657834	578.417969	3.613281
5560.682836	0.782748	578.417969	3.613281
5560.684834	0.780349	8.583842	0.694982
5561.738842	0.309405	158.593750	82.226562
5561.740844	0.609945	158.593750	82.226562
5561.742844	0.780170	158.593750	82.226562
5561.746845	0.778133	8.559462	0.749024
5562.768810	0.360753	598.437500	-0.195312
5562.770812	0.657440	598.437500	-0.195312
5562.772811	0.782570	598.437500	-0.195312
5562.774811	0.780196	8.582158	0.665316
5563.833768	0.778706	150.195312	28.906250
5563.835769	0.780316	150.195312	28.906250
5563.837770	0.778014	8.558150	0.744359
5564.867792	0.782032	592.773437	0.195312
5564.869800	0.781836	592.773437	0.195312
5564.871800	0.777182	8.549005	0.658553
5565.919832	0.736831	144.140625	-1.757812
5565.921834	0.781771	144.140625	-1.757812
5565.923835	0.779219	8.571408	0.738366
5566.953856	0.431158	563.281250	2.636719
5566.955859	0.712137	563.281250	2.636719
5566.957858	0.782066	563.281250	2.636719
5566.959859	0.779290	8.572188	0.675453
5568.011855	0.684180	155.273437	40.722656
5568.013858	0.781913	155.273437	40.722656
5568.015858	0.779065	8.569715	0.713931
5569.049863	0.748807	576.562500	1.269531
5569.051864	0.780759	576.562500	1.269531
5569.053863	0.778155	8.559701	0.634912
5570.098401	0.559551	152.832031	28.710937
5570.100403	0.772036	152.832031	28.710937
5570.102404	0.780768	152.832031	28.710937
5570.104403	0.778426	8.562688	0.857159
5571.136907	0.508828	555.761719	3.417969
5571.138907	0.754498	555.761719	3.417969
5571.140908	0.780451	555.761719	3.417969
5571.142908	0.777944	8.557388	0.667858
5572.192893	0.622375	151.562500	15.625000
5572.194897	0.780895	151.562500	15.625000
5572.196896	0.780089	8.580980	0.732871
5573.227407	0.506220	585.253906	0.878906
5573.229409	0.753353	585.253906	0.878906
5573.231408	0.780490	585.253906	0.878906
5573.233408	0.777903	8.556936	0.663886
5574.280312	0.391052	147.265625	-4.882812
5574.288312	0.777810	147.265625	-4.882812
5574.290315	0.776448	147.265625	-4.882812
5574.292313	0.775442	8.529862	0.753542
5575.318359	0.651205	578.515625	1.855469
5575.320361	0.782417	578.515625	1.855469
5575.322362	0.780257	8.582823	0.658464
5576.372927	0.322686	146.972656	-14.550781
5576.374928	0.622653	146.972656	-14.550781
5576.376927	0.781778	146.972656	-14.550781
5576.378927	0.781050	8.591553	0.727781
5577.408932	0.719966	582.421875	2.246094
5577.410935	0.781404	582.421875	2.246094
5577.412933	0.778560	8.564159	0.660768
5578.464919	0.624904	157.324219	33.691406
5578.466922	0.781395	157.324219	33.691406
5578.468921	0.780460	8.585056	1.030328
5579.494925	0.451418	570.019531	3.906250
5579.496925	0.724848	570.019531	3.906250
5579.498927	0.781238	570.019531	3.906250
5579.500926	0.778408	8.562484	0.657412
5580.558962	0.619488	147.851562	7.324219
5580.560964	0.780301	147.851562	7.324219
5580.562964	0.779538	8.574918	0.720282
5581.586955	0.674918	565.722656	5.957031
5581.588956	0.782421	565.722656	5.957031
5581.590957	0.779777	8.577550	0.690520
5582.647485	0.401450	142.675781	14.843750
5582.649484	0.690657	142.675781	14.843750
5582.651484	0.781966	142.675781	14.843750
5582.653485	0.779056	8.569618	0.684337
5583.679519	0.531211	530.664062	9.960937
5583.681521	0.763208	530.664062	9.960937
5583.683520	0.780408	530.664062	9.960937
5583.685521	0.777925	8.557176	0.686863
5584.737536	0.748494	136.816406	9.667969
5584.739538	0.781066	136.816406	9.667969
5584.741540	0.778529	8.563813	0.683688
5585.771556	0.300094	529.589844	8.203125
5585.773555	0.600901	529.589844	8.203125
5585.775556	0.779141	529.589844	8.203125
5585.777556	0.780257	8.582823	0.705266
5586.823629	0.365633	148.730469	47.949219
5586.825630	0.661627	148.730469	47.949219
5586.827631	0.782807	148.730469	47.949219
5586.829630	0.780353	8.583886	0.681766
5587.865633	0.731565	551.757812	3.710937
5587.867634	0.781532	551.757812	3.710937
5587.869634	0.778773	8.566499	0.684593
5588.912176	0.381245	141.503906	-4.589844
5588.914178	0.674832	141.503906	-4.589844
5588.916178	0.782924	141.503906	-4.589844
5588.918179	0.780257	8.582823	0.699231
5589.956181	0.538237	543.261719	4.101562
5589.958181	0.765757	543.261719	4.101562
5589.960182	0.780850	543.261719	4.101562
5589.962182	0.778413	8.562546	0.689545
5591.008214	0.780626	142.675781	-36.914062
5591.010216	0.778085	142.675781	-36.914062
5591.012215	0.776519	8.541711	0.757649
5592.046252	0.628698	530.371094	6.933594
5592.048254	0.780945	530.371094	6.933594
5592.050254	0.779680	8.576477	0.984585
5593.098263	0.452451	147.167969	-47.460937
5593.100266	0.725422	147.167969	-47.460937
5593.102264	0.781070	147.167969	-47.460937
5593.104264	0.778199	8.560188	0.700502
5594.134311	0.750637	566.699219	4.687500
5594.136312	0.780776	566.699219	4.687500
5594.138314	0.778179	8.559967	0.634755
5595.190314	0.378369	147.070312	-33.789062
5595.192317	0.672443	147.070312	-33.789062
5595.194317	0.782579	147.070312	-33.789062
5595.196317	0.779891	8.578799	0.700808
5596.222335	0.656566	551.757812	7.714844
5596.224338	0.781653	551.757812	7.714844
5596.226338	0.779165	8.570815	0.643376
5597.284384	0.730746	136.523437	-56.933594
5597.286387	0.781198	136.523437	-56.933594
5597.288386	0.778483	8.563308	0.689950
5598.312843	0.507705	530.078125	11.328125
5598.314846	0.754286	530.078125	11.328125
5598.316846	0.781057	530.078125	11.328125
5598.318846	0.778442	8.562865	0.652724
5599.370863	0.310596	133.300781	-49.511719
5599.372863	0.611048	133.300781	-49.511719
5599.374865	0.780270	133.300781	-49.511719
5599.376865	0.780390	8.584285	0.696573
5600.405756	0.485704	543.945312	9.570312
5600.407757	0.743979	543.945312	9.570312
5600.409757	0.780994	543.945312	9.570312
5600.411757	0.778384	8.562227	0.649220
5601.458250	0.304516	135.058594	-31.445312
5601.460252	0.605144	135.058594	-31.445312
5601.462252	0.779058	135.058594	-31.445312
5601.466250	0.777398	8.551380	0.707249
5602.500240	0.689320	513.085937	9.570312
5602.502241	0.781432	513.085937	9.570312
5602.504240	0.778496	8.563459	0.644070
5603.548299	0.394070	139.257812	-23.144531
5603.550300	0.685244	139.257812	-23.144531
5603.552301	0.783578	139.257812	-23.144531
5603.554302	0.780820	8.589018	0.677004
5604.588325	0.338756	516.503906	7.617187
5604.590326	0.637644	516.503906	7.617187
5604.592327	0.782622	516.503906	7.617187
5604.594327	0.781012	8.591136	0.693002
5605.637191	0.382820	143.066406	-16.210937
5605.639192	0.676336	143.066406	-16.210937
5605.641193	0.784287	143.066406	-16.210937
5605.643193	0.781654	8.598199	0.707812
5606.681752	0.547945	538.769531	5.273437
5606.683754	0.556914	538.769531	5.273437
5606.685753	0.780160	538.769531	5.273437
5606.687756	0.777691	8.554597	0.648477
5607.728296	0.549918	145.898437	-19.824219
5607.730299	0.768808	145.898437	-19.824219
5607.732298	0.779974	145.898437	-19.824219
5607.734300	0.777564	8.553205	0.779635
5608.773220	0.684859	520.996094	7.031250
5608.775222	0.781982	520.996094	7.031250
5608.777221	0.779174	8.570912	0.635747
5609.817239	0.395084	138.183594	-60.937500
5609.819240	0.685694	138.183594	-60.937500
5609.821241	0.781875	138.183594	-60.937500
5609.823239	0.778968	8.568644	0.689631
5610.861244	0.322700	529.492187	6.445312
5610.863247	0.622533	529.492187	6.445312
5610.865248	0.780216	529.492187	6.445312
5610.867246	0.779289	8.572179	0.639039
5611.911278	0.736754	131.152344	-102.246094
5611.913291	0.781621	131.152344	-102.246094
5611.915297	0.778964	8.568607	0.683761
5612.953344	0.563659	542.675781	5.078125
5612.955346	0.772693	542.675781	5.078125
5612.957346	0.780237	542.675781	5.078125
5612.959346	0.777828	8.556103	0.639633
5613.999349	0.485512	142.285156	-48.144531
5614.001350	0.743657	142.285156	-48.144531
5614.003352	0.780618	142.285156	-48.144531
5614.005350	0.777932	8.557255	0.700623
5615.043879	0.568015	521.386719	6.738281
5615.047880	0.779880	521.386719	6.738281
5615.049882	0.777532	521.386719	6.738281
5615.051883	0.776073	8.536800	0.647006
5616.091923	0.704875	130.078125	-100.097656
5616.093930	0.781899	130.078125	-100.097656
5616.095935	0.778979	8.568768	0.679895
5617.132428	0.275227	504.687500	8.593750
5617.134432	0.576864	504.687500	8.593750
5617.136431	0.775408	504.687500	8.593750
5617.138430	0.780288	504.687500	8.593750
5617.140431	0.777907	8.556980	0.665554
5618.180412	0.342123	137.500000	-58.496094
5618.182412	0.640667	137.500000	-58.496094
5618.184412	0.781750	137.500000	-58.496094
5618.186411	0.779898	8.578879	0.677393
5619.226413	0.774905	521.484375	8.203125
5619.228416	0.779737	521.484375	8.203125
5619.230416	0.777355	8.550901	0.804816
5620.272953	0.419281	141.015625	-37.207031
5620.274957	0.703623	141.015625	-37.207031
5620.276956	0.781605	141.015625	-37.207031
5620.278955	0.778706	8.565763	0.662176
5621.313472	0.665098	528.417969	9.179687
5621.315473	0.782233	528.417969	9.179687
5621.317474	0.782210	8.604314	0.634372
5622.366019	0.343309	134.570312	-72.363281
5622.368019	0.641726	134.570312	-72.363281
5622.370018	0.782085	134.570312	-72.363281
5622.372020	0.780197	8.582168	0.654031
5623.400033	0.309326	528.906250	10.937500
5623.402034	0.609762	528.906250	10.937500
5623.404034	0.779917	528.906250	10.937500
5623.406035	0.780070	8.580767	0.637645
5624.458962	0.555827	135.839844	-83.007812
5624.460963	0.770522	135.839844	-83.007812
5624.462962	0.780094	135.839844	-83.007812
5624.464964	0.777645	8.554091	0.759379
5625.490953	0.603381	527.636719	10.839844
5625.492955	0.779581	527.636719	10.839844
5625.494955	0.780466	8.585127	0.628862
5626.549465	0.481820	138.085937	-105.273437
5626.551467	0.741997	138.085937	-105.273437
5626.553468	0.780971	138.085937	-105.273437
5626.555468	0.778260	8.560862	0.663621
5627.579512	0.390404	533.984375	9.179687
5627.581511	0.682242	533.984375	9.179687
5627.583511	0.783171	533.984375	9.179687
5627.585511	0.780472	8.585189	0.631874
5628.640065	0.572200	137.011719	-145.019531
5628.642066	0.774068	137.011719	-145.019531
5628.644066	0.779610	137.011719	-145.019531
5628.646064	0.777268	8.549953	0.690184
5629.674090	0.617463	500.195312	10.839844
5629.676092	0.780745	500.195312	10.839844
5629.678091	0.780241	8.582645	0.905453
5630.728075	0.508328	143.457031	-124.316406
5630.730076	0.754538	143.457031	-124.316406
5630.732077	0.780979	143.457031	-124.316406
5630.734077	0.778457	8.563025	0.664630
5631.768130	0.734348	495.800781	9.960937
5631.770132	0.781680	495.800781	9.960937
5631.772133	0.778972	8.568696	0.584233
5632.815036	0.282441	139.062500	-129.589844
5632.817038	0.583745	139.062500	-129.589844
5632.819036	0.777093	139.062500	-129.589844
5632.821036	0.780833	139.062500	-129.589844
5632.823036	0.778541	8.563955	0.680287
5633.859038	0.521734	531.933594	5.957031
5633.861041	0.759888	531.933594	5.957031
5633.863042	0.780756	531.933594	5.957031
5633.865041	0.778206	8.560268	0.600904
5634.904019	0.444176	138.183594	-107.812500
5634.908021	0.781461	138.183594	-107.812500
5634.910023	0.778729	138.183594	-107.812500
5634.912022	0.778659	8.565248	0.675869
5635.950029	0.516285	492.968750	9.277344
5635.952032	0.757524	492.968750	9.277344
5635.954031	0.780448	492.968750	9.277344
5635.956031	0.777910	8.557007	0.584162
5636.996057	0.517769	134.667969	-106.347656
5636.998054	0.758697	134.667969	-106.347656
5637.000057	0.781314	134.667969	-106.347656
5637.002058	0.781143	8.592572	0.645774
5638.040044	0.669603	487.988281	11.230469
5638.042043	0.781484	487.988281	11.230469
5638.044044	0.778750	8.566251	0.609463
5639.088068	0.364275	140.136719	-73.925781
5639.090072	0.660425	140.136719	-73.925781
5639.092073	0.782652	140.136719	-73.925781
5639.094071	0.780328	8.583603	0.665890
5640.128639	0.543957	495.214844	12.890625
5640.130640	0.767229	495.214844	12.890625
5640.132641	0.780157	495.214844	12.890625
5640.134639	0.777716	8.554872	0.665733
5641.180669	0.526270	145.312500	-51.953125
5641.182672	0.761580	145.312500	-51.953125
5641.184671	0.780721	145.312500	-51.953125
5641.186671	0.778233	8.560561	0.660098
5642.216688	0.485602	512.890625	13.085937
5642.218690	0.743728	512.890625	13.085937
5642.220691	0.780742	512.890625	13.085937
5642.222691	0.778020	8.558221	0.593746
5643.273611	0.433207	132.031250	-130.761719
5643.275614	0.713178	132.031250	-130.761719
5643.277614	0.781430	132.031250	-130.761719
5643.279613	0.778495	8.563450	0.626944
5644.307657	0.745093	501.367187	14.746094
5644.309659	0.781033	501.367187	14.746094
5644.311661	0.778367	8.562040	0.592449
5645.363661	0.366068	134.179687	-139.062500
5645.365663	0.662021	134.179687	-139.062500
5645.367664	0.783024	134.179687	-139.062500
5645.369662	0.780667	8.587334	0.646624
5646.397635	0.744254	512.500000	13.574219
5646.399639	0.781003	512.500000	13.574219
5646.401639	0.778396	8.562351	0.592486
5647.454160	0.286091	139.355469	-127.441406
5647.456168	0.587365	139.355469	-127.441406
5647.458171	0.778797	139.355469	-127.441406
5647.460171	0.781710	139.355469	-127.441406
5647.462171	0.779494	8.574430	0.646384
5648.488230	0.751598	514.843750	13.476562
5648.490230	0.781019	514.843750	13.476562
5648.492231	0.778483	8.563317	0.575264
5649.544767	0.305225	137.402344	-146.191406
5649.546768	0.605863	137.402344	-146.191406
5649.548770	0.780124	137.402344	-146.191406
5649.550770	0.780735	8.588087	0.652506
5650.578785	0.713677	503.417969	14.062500
5650.580788	0.781782	503.417969	14.062500
5650.582787	0.778973	8.568706	0.578635
5651.634818	0.314223	148.535156	-97.167969
5651.636821	0.614408	148.535156	-97.167969
5651.638819	0.779420	148.535156	-97.167969
5651.640821	0.779059	8.569654	0.680730
5652.668842	0.663156	487.695312	15.332031
5652.672842	0.779497	487.695312	15.332031
5652.674845	0.777483	8.552310	0.579860
5653.726852	0.470396	132.910156	-173.828125
5653.728853	0.736025	132.910156	-173.828125
5653.730853	0.781434	132.910156	-173.828125
5653.732852	0.778795	8.566747	0.657868
5654.756873	0.294973	500.000000	15.136719
5654.760883	0.779465	500.000000	15.136719
5654.762883	0.781153	500.000000	15.136719
5654.764883	0.778937	8.568307	0.592839
5655.818893	0.690512	144.726562	-109.375000
5655.820895	0.782468	144.726562	-109.375000
5655.822895	0.779688	8.576566	0.627881
5656.847411	0.301852	481.250000	16.992187
5656.849412	0.602518	481.250000	16.992187
5656.851411	0.779632	481.250000	16.992187
5656.853410	0.780590	8.586492	0.627681
5657.909451	0.744954	128.906250	-181.152344
5657.911453	0.780962	128.906250	-181.152344
5657.913453	0.778375	8.562129	0.617097
5658.939920	0.375276	508.300781	15.527344
5658.941922	0.669705	508.300781	15.527344
5658.943922	0.782272	508.300781	15.527344
5658.945921	0.779700	8.576699	0.617224
5659.996872	0.479768	143.457031	-97.558594
5659.998876	0.740918	143.457031	-97.558594
5660.000875	0.781021	143.457031	-97.558594
5660.002874	0.778275	8.561030	0.606189
5661.032893	0.362913	478.320312	16.894531
5661.034894	0.659200	478.320312	16.894531
5661.036893	0.781802	478.320312	16.894531
5661.038892	0.779295	8.572242	0.576820
5662.088936	0.781647	126.855469	-182.226562
5662.090938	0.778734	126.855469	-182.226562
5662.092937	0.776907	8.545974	0.612143
5663.124955	0.445246	472.753906	15.039062
5663.126957	0.721108	472.753906	15.039062
5663.128956	0.781472	472.753906	15.039062
5663.130957	0.778555	8.564106	0.572181
5664.172961	0.280248	133.105469	-160.644531
5664.174961	0.581692	133.105469	-160.644531
5664.176961	0.776315	133.105469	-160.644531
5664.178962	0.780282	133.105469	-160.644531
5664.180965	0.777968	8.557645	0.633590
5665.217038	0.526976	467.871094	14.160156
5665.219038	0.761565	467.871094	14.160156
5665.223035	0.777893	467.871094	14.160156
5665.225039	0.776316	8.539477	0.588178
5666.263075	0.378777	135.644531	-164.453125
5666.265075	0.672825	135.644531	-164.453125
5666.267079	0.783149	135.644531	-164.453125
5666.269082	0.780583	8.586412	0.626971
5667.307090	0.385969	484.863281	12.695312
5667.309093	0.679197	484.863281	12.695312
5667.311091	0.785865	484.863281	12.695312
5667.313092	0.783061	8.613672	0.566259
5668.353081	1.804688	133.984375	-197.265625
5668.355082	0.604099	133.984375	-197.265625
5668.357083	0.779637	133.984375	-197.265625
5668.359082	0.780390	8.584294	0.645679
5669.397165	0.399069	481.347656	13.476562
5669.399167	0.688801	481.347656	13.476562
5669.401167	0.781816	481.347656	13.476562
5669.403166	0.778825	8.567075	0.550881
5670.445153	0.309677	144.140625	-177.148437
5670.447155	0.610083	144.140625	-177.148437
5670.451152	0.779823	144.140625	-177.148437
5670.453155	0.777579	8.553365	0.645239
5671.485685	0.332418	475.292969	14.257812
5671.487687	0.631744	475.292969	14.257812
5671.491686	0.780415	475.292969	14.257812
5671.493686	0.778203	8.560233	0.572076
5672.541669	0.761809	142.578125	-200.292969
5672.543669	0.780447	142.578125	-200.292969
5672.545670	0.777980	8.557778	0.647124
5673.576175	0.636230	470.800781	15.917969
5673.578176	0.781284	470.800781	15.917969
5673.580177	0.779546	8.575006	0.545045
5674.630636	0.370215	148.828125	-169.433594
5674.632635	0.665480	148.828125	-169.433594
5674.634635	0.782577	148.828125	-169.433594
5674.636636	0.780169	8.581857	0.630045
5675.665566	0.625107	504.101562	15.039062
5675.667567	0.781488	504.101562	15.039062
5675.669566	0.780479	8.585269	0.911409
5676.722511	0.575071	142.187500	-185.253906
5676.724514	0.775245	142.187500	-185.253906
5676.726515	0.780377	142.187500	-185.253906
5676.728514	0.778025	8.558274	0.642941
5677.756522	0.768438	488.378906	16.894531
5677.758523	0.780421	488.378906	16.894531
5677.760523	0.778005	8.558053	0.642354
5678.814516	0.646533	131.054687	-224.023437
5678.816518	0.781809	131.054687	-224.023437
5678.818517	0.779830	8.578135	0.615612
5679.844497	0.473211	466.992187	18.847656
5679.846498	0.737453	466.992187	18.847656
5679.848498	0.781165	466.992187	18.847656
5679.850499	0.778512	8.563636	0.556153
5680.902540	0.355983	132.812500	-198.925781
5680.904544	0.376578	132.812500	-198.925781
5680.906548	0.782677	132.812500	-198.925781
5680.908551	0.780467	8.585136	0.609230
5681.936569	0.478733	482.519531	18.066406
5681.938573	0.740355	482.519531	18.066406
5681.940572	0.743322	482.519531	18.066406
5681.942571	0.778400	8.562395	0.582187
5682.993098	0.519528	143.359375	-134.570312
5682.995099	0.759023	143.359375	-134.570312
5682.997098	0.780751	143.359375	-134.570312
5682.999099	0.778191	8.560100	0.612591
5684.029126	0.555862	459.765625	18.750000
5684.031128	0.565851	459.765625	18.750000
5684.033132	0.780278	459.765625	18.750000
5684.035141	0.777741	8.555155	0.668299
5685.083144	0.604297	137.011719	-165.722656
5685.085146	0.778930	137.011719	-165.722656
5685.087145	0.779648	8.576132	0.602096
5686.119671	0.485512	464.941406	17.773437
5686.121673	0.743846	464.941406	17.773437
5686.123673	0.780929	464.941406	17.773437
5686.125673	0.778234	8.560570	0.546089
5687.171696	0.391024	133.886719	-183.789062
5687.173698	0.682569	133.886719	-183.789062
5687.175699	0.782227	133.886719	-183.789062
5687.177698	0.779434	8.573774	0.592437
5688.209727	0.344740	461.425781	17.871094
5688.211728	0.643187	461.425781	17.871094
5688.213729	0.782596	461.425781	17.871094
5688.215729	0.780768	8.588450	0.554651
5689.261740	0.399616	139.941406	-159.667969
5689.263741	0.689213	139.941406	-159.667969
5689.265742	0.782218	139.941406	-159.667969
5689.267743	0.779372	8.573092	0.596461
5690.300663	1.531008	459.375000	18.164062
5690.302662	0.698493	459.375000	18.164062
5690.304664	0.783154	459.375000	18.164062
5690.306664	0.780411	8.584516	0.548100
5691.354735	0.738223	137.402344	-176.074219
5691.356738	0.781281	137.402344	-176.074219
5691.358737	0.778579	8.564371	0.585942
5692.391274	0.351065	453.515625	18.359375
5692.393277	0.648849	453.515625	18.359375
5692.395275	0.782303	453.515625	18.359375
5692.397278	0.780160	8.581759	0.545962
5693.443265	0.403461	129.980469	-215.722656
5693.445267	0.692409	129.980469	-215.722656
5693.447267	0.782761	129.980469	-215.722656
5693.449268	0.779959	8.579553	0.584584
5694.481284	0.355273	483.105469	16.894531
5694.483284	0.652505	483.105469	16.894531
5694.487285	0.779277	483.105469	16.894531
5694.489285	0.777189	8.549075	0.549353
5695.533271	0.328580	142.285156	-156.347656
5695.535272	0.628159	142.285156	-156.347656
5695.537273	0.781053	142.285156	-156.347656
5695.539275	0.779878	8.578657	0.622215
5696.573251	0.649669	442.968750	19.921875
5696.575252	0.782043	442.968750	19.921875
5696.577253	0.779872	8.578596	1.006134
5697.625222	0.394785	139.550781	-173.925781
5697.627224	0.685586	139.550781	-173.925781
5697.629225	0.782614	139.550781	-173.925781
5697.631224	0.779866	8.578525	0.612687
5698.663734	0.510990	449.218750	20.312500
5698.665735	0.780965	449.218750	20.312500
5698.669733	0.776713	8.543846	0.527925
5699.715749	0.241481	143.359375	-167.089844
5699.717753	0.545090	143.359375	-167.089844
5699.719751	0.767653	143.359375	-167.089844
5699.721751	0.780394	143.359375	-167.089844
5699.723751	0.777977	8.557752	0.629699
5700.751768	0.587299	443.359375	20.703125
5700.753772	0.777535	443.359375	20.703125
5700.755771	0.780586	443.359375	20.703125
5700.757772	0.778343	8.561775	0.544932
5701.807793	0.399868	128.515625	-261.132812
5701.809794	0.689480	128.515625	-261.132812
5701.811794	0.782451	128.515625	-261.132812
5701.813796	0.779686	8.576549	0.622500
5702.841817	0.669746	476.757812	19.042969
5702.843819	0.782119	476.757812	19.042969
5702.845820	0.779461	8.574076	0.539004
5703.898344	0.331540	147.656250	-184.570312
5703.900345	0.630903	147.656250	-184.570312
5703.902346	0.781361	147.656250	-184.570312
5703.904347	0.779935	8.579287	0.595826
5704.932336	0.673120	459.375000	19.042969
5704.934338	0.782685	459.375000	19.042969
5704.936339	0.780061	8.580669	0.527423
5705.990378	0.561215	146.191406	-214.062500
5705.992379	0.772042	146.191406	-214.062500
5705.994385	0.780300	146.191406	-214.062500
5705.998382	0.776312	8.539433	0.721826
5707.022389	0.458955	489.746094	16.308594
5707.024391	0.729326	489.746094	16.308594
5707.026390	0.781170	489.746094	16.308594
5707.028390	0.778438	8.562821	0.503347
5708.080418	0.645339	139.257812	-264.843750
5708.082421	0.781081	139.257812	-264.843750
5708.084421	0.778951	8.568457	0.603611
5709.114451	0.387154	484.863281	15.527344
5709.116451	0.680179	484.863281	15.527344
5709.118451	0.785866	484.863281	15.527344
5709.120451	0.783097	8.614062	0.498461
5710.167390	1.735034	134.570312	-292.480469
5710.169391	0.647135	134.570312	-292.480469
5710.171392	0.781778	134.570312	-292.480469
5710.173390	0.779685	8.576540	0.601447
5711.207413	0.524783	483.203125	15.429687
5711.209413	0.760885	483.203125	15.429687
5711.211415	0.780581	483.203125	15.429687
5711.213415	0.778081	8.558886	0.505395
5712.257414	0.507228	127.734375	-320.507812
5712.259415	0.754094	127.734375	-320.507812
5712.261416	0.781029	127.734375	-320.507812
5712.263416	0.778586	8.564443	0.611375
5713.299438	0.522679	453.027344	16.406250
5713.301442	0.760443	453.027344	16.406250
5713.303442	0.780961	453.027344	16.406250
5713.305449	0.778354	8.561890	0.500276
5714.347499	0.725022	137.597656	-251.855469
5714.349498	0.780903	137.597656	-251.855469
5714.351503	0.778100	8.559099	0.595192
5715.390048	0.463000	445.019531	16.113281
5715.392049	0.731690	445.019531	16.113281
5715.394048	0.781126	445.019531	16.113281
5715.396049	0.778403	8.562431	0.502626
5716.438058	0.732182	129.785156	-275.878906
5716.440061	0.781605	129.785156	-275.878906
5716.442060	0.778869	8.567562	0.578925
5717.480094	0.396009	458.886719	15.820312
5717.482095	0.686465	458.886719	15.820312
5717.484094	0.782298	458.886719	15.820312
5717.486094	0.779473	8.574200	0.514968
5718.526144	0.402036	128.320312	-272.949219
5718.528147	0.691236	128.320312	-272.949219
5718.532145	0.779773	128.320312	-272.949219
5718.534147	0.777829	8.556121	0.581849
5719.570183	0.411180	434.863281	17.871094
5719.572185	0.697712	434.863281	17.871094
5719.574186	0.781515	434.863281	17.871094
5719.576187	0.778560	8.564159	0.514653
5720.618186	0.479307	129.589844	-262.011719
5720.620188	0.740724	129.589844	-262.011719
5720.622189	0.780952	129.589844	-262.011719
5720.624189	0.778251	8.560765	0.567503
5721.660223	0.497304	448.046875	19.140625
5721.662223	0.749711	448.046875	19.140625
5721.664223	0.781237	448.046875	19.140625
5721.666223	0.778628	8.564903	0.505292
5722.712208	0.741374	134.960937	-233.007812
5722.714211	0.782594	134.960937	-233.007812
5722.716210	0.780146	8.581609	0.563448
5723.748767	0.358201	440.625000	20.605469
5723.750768	0.655252	440.625000	20.605469
5723.752770	0.782802	440.625000	20.605469
5723.754770	0.780502	8.585526	0.517387
5724.802786	0.635289	134.472656	-238.964844
5724.804789	0.780589	134.472656	-238.964844
5724.806789	0.778940	8.568342	0.577112
5725.840769	0.716632	430.566406	21.679687
5725.842771	0.781652	430.566406	21.679687
5725.844772	0.778767	8.566437	0.540581
5726.892795	0.410168	124.121094	-300.097656
5726.894796	0.697274	124.121094	-300.097656
5726.896797	0.782143	124.121094	-300.097656
5726.898796	0.779289	8.572179	0.587415
5727.930858	0.762007	458.496094	20.898437
5727.934859	0.777838	458.496094	20.898437
5727.936862	0.776298	8.539283	0.535386
5728.983389	0.425641	128.710937	-279.785156
5728.985392	0.708328	128.710937	-279.785156
5728.987390	0.781957	128.710937	-279.785156
5728.989390	0.779066	8.569724	0.561261
5730.019438	0.465971	435.351562	21.679687
5730.021438	0.733503	435.351562	21.679687
5730.023438	0.781337	435.351562	21.679687
5730.025441	0.778572	8.564292	0.506407
5731.075461	0.658403	130.566406	-270.410156
5731.077462	0.781877	130.566406	-270.410156
5731.081461	0.777417	8.551583	0.567191
5732.109520	0.404654	465.136719	20.410156
5732.111521	0.693005	465.136719	20.410156
5732.113521	0.782107	465.136719	20.410156
5732.115520	0.779287	8.572153	0.503933
5733.163521	0.295036	141.210937	-218.457031
5733.165528	0.595990	141.210937	-218.457031
5733.167531	0.778823	141.210937	-218.457031
5733.169531	0.780329	8.583621	0.573841
5734.199490	0.403268	435.058594	21.972656
5734.201494	0.692322	435.058594	21.972656
5734.203500	0.783225	435.058594	21.972656
5734.205500	0.780480	8.585278	0.517369
5735.255564	0.527816	124.218750	-308.300781
5735.257566	0.762331	124.218750	-308.300781
5735.261564	0.778492	124.218750	-308.300781
5735.263567	0.776885	8.545734	0.574163
5736.293601	0.746134	423.046875	21.875000
5736.295600	0.781099	423.046875	21.875000
5736.297599	0.778454	8.562998	0.527435
5737.345619	1.958216	137.695312	-237.011719
5737.347621	0.765356	137.695312	-237.011719
5737.351621	0.777998	137.695312	-237.011719
5737.353620	0.776402	8.540426	0.598313
5738.383565	0.555289	429.589844	21.191406
5738.385567	0.770898	429.589844	21.191406
5738.387568	0.780873	429.589844	21.191406
5738.389567	0.778505	8.563557	0.633128
5739.433612	0.316632	136.621094	-245.117187
5739.435614	0.616748	136.621094	-245.117187
5739.437614	0.780409	136.621094	-245.117187
5739.439613	0.780011	8.580120	0.554315
5740.474528	0.474667	434.863281	19.824219
5740.476531	0.738247	434.863281	19.824219
5740.478535	0.781115	434.863281	19.824219
5740.480536	0.778375	8.562120	0.499243
5741.522526	0.309114	130.566406	-283.105469
5741.524528	0.609673	130.566406	-283.105469
5741.526526	0.780346	130.566406	-283.105469
5741.528528	0.780560	8.586164	0.563773
5742.566519	0.544348	432.226562	18.945312
5742.568521	0.767639	432.226562	18.945312
5742.570522	0.780754	432.226562	18.945312
5742.572522	0.778319	8.561509	0.577796
5743.612551	0.394315	129.003906	-300.878906
5743.614553	0.685186	129.003906	-300.878906
5743.616553	0.782763	129.003906	-300.878906
5743.618554	0.780104	8.581148	0.561848
5744.656613	0.407695	432.128906	19.042969
5744.658616	0.695462	432.128906	19.042969
5744.660616	0.782471	432.128906	19.042969
5744.662616	0.779707	8.576779	0.494867
5745.704655	0.698877	130.859375	-305.078125
5745.710655	0.776750	130.859375	-305.078125
5745.712657	0.775388	8.529268	0.562317
5746.746680	0.264214	426.660156	18.457031
5746.748681	0.566209	426.660156	18.457031
5746.750680	0.773403	426.660156	18.457031
5746.752680	0.780639	426.660156	18.457031
5746.754680	0.778229	8.560516	0.527300
5747.792735	0.349620	127.734375	-336.425781
5747.794738	0.647560	127.734375	-336.425781
5747.796737	0.782395	127.734375	-336.425781
5747.798738	0.780377	8.584144	0.575133
5748.838719	0.573887	428.515625	18.554687
5748.840722	0.775292	428.515625	18.554687
5748.842727	0.780820	428.515625	18.554687
5748.844728	0.778496	8.563459	0.677344
5749.884770	0.349668	126.855469	-361.914062
5749.886769	0.647635	126.855469	-361.914062
5749.888770	0.782919	126.855469	-361.914062
5749.890771	0.780928	8.590205	0.569911
5750.926785	0.364844	426.562500	18.750000
5750.928786	0.660936	426.562500	18.750000
5750.930787	0.782070	426.562500	18.750000
5750.932787	0.779604	8.575644	0.476049
5751.976827	0.431157	138.574219	-319.042969
5751.978830	0.711729	138.574219	-319.042969
5751.980830	0.781205	138.574219	-319.042969
5751.982830	0.778339	8.561730	0.568494
5753.015361	0.304165	431.347656	19.140625
5753.017363	0.604918	431.347656	19.140625
5753.019363	0.780458	431.347656	19.140625
5753.021363	0.781302	8.594326	0.482342
5754.071395	0.755510	125.585937	-394.238281
5754.073397	0.780651	125.585937	-394.238281
5754.075397	0.778083	8.558912	0.554563
5755.107866	0.731661	460.058594	18.554687
5755.109867	0.735287	460.058594	18.554687
5755.111869	0.778749	8.566241	0.464523
5756.159881	0.355872	131.152344	-365.136719
5756.161881	0.653165	131.152344	-365.136719
5756.163881	0.782227	131.152344	-365.136719
5756.165881	0.780004	8.580040	0.567921
5757.193882	0.236965	457.812500	19.238281
5757.195884	0.540916	457.812500	19.238281
5757.197885	0.766597	457.812500	19.238281
5757.199885	0.780616	457.812500	19.238281
5757.201885	0.778145	8.559595	0.517855
5758.252851	0.570744	126.757812	-382.812500
5758.254851	0.774287	126.757812	-382.812500
5758.256852	0.780290	126.757812	-382.812500
5758.258852	0.777892	8.556812	0.722760
5759.284905	0.474323	441.796875	20.996094
5759.288905	0.740769	441.796875	20.996094
5759.290907	0.778328	441.796875	20.996094
5759.292908	0.776609	8.542704	0.473455
5760.342953	0.436739	128.906250	-365.429687
5760.344958	0.715644	128.906250	-365.429687
5760.346958	0.781523	128.906250	-365.429687
5760.348959	0.778581	8.564389	0.547620
5761.374953	0.407743	436.914062	22.363281
5761.376955	0.695311	436.914062	22.363281
5761.378961	0.781863	436.914062	22.363281
5761.380959	0.778946	8.568404	0.477848
5762.435019	0.666258	124.707031	-378.710937
5762.437022	0.781774	124.707031	-378.710937
5762.441021	0.777159	8.548747	0.550555
5763.469005	0.771979	409.375000	24.414062
5763.471006	0.780278	409.375000	24.414062
5763.473007	0.777857	8.556422	0.621336
5764.525020	0.669055	123.925781	-374.414062
5764.527020	0.782956	123.925781	-374.414062
5764.529020	0.780373	8.584108	0.550422
5765.555464	0.254027	436.425781	24.218750
5765.559464	0.771763	436.425781	24.218750
5765.563464	0.779266	436.425781	24.218750
5765.567464	0.776462	8.541081	0.494411
5766.613461	0.366134	141.308594	-281.835937
5766.615462	0.662168	141.308594	-281.835937
5766.617462	0.783295	141.308594	-281.835937
5766.619462	0.780931	8.590240	0.543089
5767.648394	0.543584	418.847656	25.585937
5767.650395	0.767327	418.847656	25.585937
5767.652395	0.780402	418.847656	25.585937
5767.654396	0.777949	8.557442	0.545497
5768.706410	0.755992	121.972656	-382.421875
5768.708412	0.781717	121.972656	-382.421875
5768.710417	0.779215	8.571364	0.533997
5769.739350	0.615104	440.820312	24.804687
5769.741352	0.780401	440.820312	24.804687
5769.743354	0.780079	8.580865	0.483556
5770.793849	0.271133	126.464844	-359.375000
5770.795851	0.572918	126.464844	-359.375000
5770.797851	0.774643	126.464844	-359.375000
5770.799853	0.780162	126.464844	-359.375000
5770.801850	0.777764	8.555403	0.548429
5771.829860	0.615421	431.933594	24.902344
5771.831861	0.781194	431.933594	24.902344
5771.833862	0.780975	8.590728	0.831759
5772.884376	0.275646	126.171875	-362.402344
5772.886380	0.332384	126.171875	-362.402344
5772.888379	0.775889	126.171875	-362.402344
5772.890378	0.780701	126.171875	-362.402344
5772.892380	0.778313	8.561439	0.545593
5773.920383	0.619899	439.355469	25.000000
5773.922385	0.780718	439.355469	25.000000
5773.924385	0.780108	8.581192	0.842748
5774.977326	0.645709	126.855469	-364.453125
5774.979325	0.781768	126.855469	-364.453125
5774.981327	0.779755	8.577302	0.540210
5776.011325	0.680683	402.441406	26.171875
5776.013327	0.782796	402.441406	26.171875
5776.015327	0.780174	8.581919	0.470080
5777.066222	0.407472	133.789062	-335.253906
5777.068224	0.695434	133.789062	-335.253906
5777.070223	0.699850	133.789062	-335.253906
5777.072224	0.780392	8.584311	0.536684
5778.102213	0.760631	442.285156	25.097656
5778.104215	0.780516	442.285156	25.097656
5778.106216	0.778033	8.558363	0.472813
5779.156200	0.328808	126.269531	-383.593750
5779.158202	0.628487	126.269531	-383.593750
5779.160201	0.785296	126.269531	-383.593750
5779.162202	0.784270	8.626966	0.577105
5780.190218	0.527289	446.093750	24.218750
5780.192220	0.762185	446.093750	24.218750
5780.194219	0.781120	446.093750	24.218750
5780.196220	0.781000	8.591002	0.517100
5781.248239	0.485151	129.492187	-377.636719
5781.250248	0.744018	129.492187	-377.636719
5781.252250	0.781619	129.492187	-377.636719
5781.254250	0.781367	8.595036	0.528963
5782.280309	0.466539	430.273437	24.511719
5782.282310	0.733884	430.273437	24.511719
5782.284309	0.781381	430.273437	24.511719
5782.286310	0.778603	8.564638	0.460069
5783.338353	0.504682	128.808594	-396.093750
5783.340355	0.753117	128.808594	-396.093750
5783.342355	0.781244	128.808594	-396.093750
5783.344354	0.778774	8.566516	0.532815
5784.370335	0.317290	415.234375	24.414062
5784.374336	0.780324	415.234375	24.414062
5784.376338	0.780713	415.234375	24.414062
5784.380335	0.776236	8.538591	0.465488
5785.430350	0.711363	141.503906	-342.089844
5785.432353	0.781587	141.503906	-342.089844
5785.434352	0.778706	8.565763	0.536306
5786.460927	1.980143	425.585937	23.339844
5786.462928	0.556470	425.585937	23.339844
5786.464928	0.770983	425.585937	23.339844
5786.466927	0.780406	425.585937	23.339844
5786.468926	0.777932	8.557255	0.467941
5787.518933	0.337783	141.406250	-353.222656
5787.520936	0.778513	141.406250	-353.222656
5787.522936	0.780184	141.406250	-353.222656
5787.524936	0.777902	8.556919	0.556744
5788.555447	0.696378	445.507812	21.582031
5788.557449	0.700556	445.507812	21.582031
5788.559455	0.780319	8.583506	0.479897
5789.608366	0.512985	129.882812	-412.792969
5789.610368	0.756181	129.882812	-412.792969
5789.614367	0.777868	129.882812	-412.792969
5789.616367	0.776352	8.539877	0.527232
5790.648388	0.767331	402.929687	23.046875
5790.650390	0.780551	402.929687	23.046875
5790.652390	0.778134	8.559470	0.526056
5791.698400	0.669810	137.109375	-378.027344
5791.700402	0.782364	137.109375	-378.027344
5791.702402	0.779772	8.577497	0.544390
5792.736950	0.400896	412.500000	22.363281
5792.738949	0.690306	412.500000	22.363281
5792.740952	0.782248	412.500000	22.363281
5792.742952	0.779364	8.573004	0.450841
5793.786988	0.542399	138.183594	-363.769531
5793.788991	0.766870	138.183594	-363.769531
5793.792989	0.777898	138.183594	-363.769531
5793.794991	0.776377	8.540152	0.605706
5794.827914	0.315649	404.980469	21.875000
5794.829915	0.615877	404.980469	21.875000
5794.831915	0.780124	404.980469	21.875000
5794.833915	0.779751	8.577258	0.456965
5795.875876	0.532254	134.277344	-369.921875
5795.877878	0.763552	134.277344	-369.921875
5795.881876	0.777949	134.277344	-369.921875
5795.883879	0.776445	8.540895	0.563762
5796.920437	0.467277	399.511719	21.972656
5796.922438	0.734298	399.511719	21.972656
5796.924439	0.781538	399.511719	21.972656
5796.926439	0.781434	8.595771	0.440274
5797.968447	0.766429	125.097656	-405.273437
5797.970447	0.780546	125.097656	-405.273437
5797.972448	0.778068	8.558753	0.594098
5799.012496	0.691908	402.441406	22.265625
5799.014499	0.782774	402.441406	22.265625
5799.016497	0.780042	8.580457	0.453768
5800.056525	1.649238	129.687500	-376.660156
5800.058529	0.741204	129.687500	-376.660156
5800.060527	0.781219	129.687500	-376.660156
5800.062527	0.778588	8.564469	0.520187
5801.100572	0.416746	400.683594	23.242187
5801.102577	0.701990	400.683594	23.242187
5801.106574	0.779013	400.683594	23.242187
5801.108576	0.777106	8.548162	0.458292
5802.146601	0.418254	137.304687	-334.375000
5802.148603	0.702925	137.304687	-334.375000
5802.150603	0.781607	137.304687	-334.375000
5802.152604	0.778720	8.565923	0.559311
5803.191568	0.490771	400.683594	23.730469
5803.193568	0.746732	400.683594	23.730469
5803.195568	0.781338	400.683594	23.730469
5803.197568	0.778748	8.566233	0.445746
5804.237622	0.342856	131.347656	-361.328125
5804.239624	0.641235	131.347656	-361.328125
5804.241625	0.781297	131.347656	-361.328125
5804.243624	0.779483	8.574315	0.529206
5805.281657	0.505383	409.765625	24.609375
5805.283658	0.753279	409.765625	24.609375
5805.285659	0.780958	409.765625	24.609375
5805.287659	0.778383	8.562209	0.444084
5806.329695	0.502068	126.367187	-387.988281
5806.331698	0.751826	126.367187	-387.988281
5806.333698	0.780885	126.367187	-387.988281
5806.335698	0.778337	8.561705	0.513055
5807.371688	0.513114	396.289062	25.488281
5807.375688	0.780911	396.289062	25.488281
5807.377690	0.778382	396.289062	25.488281
5807.379690	0.776696	8.543652	0.442080
5808.419719	0.356265	129.101562	-374.414062
5808.421722	0.653372	129.101562	-374.414062
5808.423721	0.782655	129.101562	-374.414062
5808.425726	0.780523	8.585756	0.524987
5809.461764	0.528146	400.878906	26.464844
5809.463767	0.762366	400.878906	26.464844
5809.465767	0.780867	400.878906	26.464844
5809.467767	0.778392	8.562315	0.477811
5810.513798	0.757734	134.667969	-350.390625
5810.515803	0.781941	134.667969	-350.390625
5810.517801	0.779526	8.574784	0.507410
5811.550338	0.316133	425.488281	25.292969
5811.552341	0.616286	425.488281	25.292969
5811.554341	0.779893	425.488281	25.292969
5811.556342	0.779391	8.573305	0.466697
5812.602338	0.446665	121.875000	-416.796875
5812.604338	0.722316	121.875000	-416.796875
5812.606339	0.782314	121.875000	-416.796875
5812.608340	0.779594	8.575538	0.508741
5813.642343	0.542394	394.824219	26.367187
5813.644344	0.767010	394.824219	26.367187
5813.646345	0.780537	394.824219	26.367187
5813.648345	0.778034	8.558372	0.535348
5814.692348	0.373849	130.175781	-375.683594
5814.694350	0.668584	130.175781	-375.683594
5814.696349	0.782823	130.175781	-375.683594
5814.698348	0.780214	8.582354	0.514458
5815.732365	0.395195	403.027344	25.976562
5815.734366	0.685963	403.027344	25.976562
5815.736366	0.782945	403.027344	25.976562
5815.738366	0.780215	8.582362	0.451202
5816.784392	0.675378	128.710937	-386.035156
5816.788391	0.781972	128.710937	-386.035156
5816.790394	0.777278	8.550059	0.519886
5817.824470	0.635194	395.898437	25.390625
5817.826472	0.781141	395.898437	25.390625
5817.828473	0.779486	8.574342	0.464182
5818.874507	0.691642	136.523437	-348.535156
5818.876509	0.782338	136.523437	-348.535156
5818.878510	0.779487	8.574360	0.543461
5819.913467	0.334197	421.777344	24.316406
5819.915467	0.633333	421.777344	24.316406
5819.917468	0.782004	421.777344	24.316406
5819.919468	0.780578	8.586359	0.458699
5820.965492	0.769600	122.070312	-425.976562
5820.969494	0.778517	122.070312	-425.976562
5820.973492	0.775833	8.534160	0.606290
5822.005529	0.414113	389.257812	24.804687
5822.007530	0.425476	389.257812	24.804687
5822.009533	0.781571	389.257812	24.804687
5822.011531	0.778648	8.565125	0.444256
5823.051582	0.262044	121.582031	-434.570312
5823.053584	0.564149	121.582031	-434.570312
5823.055585	0.773201	121.582031	-434.570312
5823.057585	0.780854	121.582031	-434.570312
5823.059586	0.778470	8.563175	0.524557
5824.097618	0.575699	417.382812	23.535156
5824.099620	0.775201	417.382812	23.535156
5824.101619	0.780149	417.382812	23.535156
5824.103619	0.777780	8.555580	0.453927
5825.144139	0.710515	138.281250	-357.031250
5825.146140	0.781439	138.281250	-357.031250
5825.148141	0.778488	8.563371	0.512805
5826.188123	0.575141	400.390625	23.535156
5826.190124	0.775121	400.390625	23.535156
5826.192125	0.780288	400.390625	23.535156
5826.194125	0.777915	8.557060	0.455496
5827.232116	0.349345	118.945312	-459.179687
5827.234118	0.647305	118.945312	-459.179687
5827.236120	0.782948	118.945312	-459.179687
5827.238120	0.781012	8.591126	0.546740
5828.278121	0.502176	404.882812	23.046875
5828.280122	0.751803	404.882812	23.046875
5828.282124	0.780808	404.882812	23.046875
5828.284130	0.778154	8.559692	0.433802
5829.322155	0.280707	125.097656	-438.378906
5829.324158	0.582133	125.097656	-438.378906
5829.326159	0.777385	125.097656	-438.378906
5829.328158	0.781522	125.097656	-438.378906
5829.330159	0.779325	8.572578	0.534400
5830.368194	0.515814	423.242187	22.363281
5830.370196	0.757381	423.242187	22.363281
5830.372197	0.780576	423.242187	22.363281
5830.374196	0.778052	8.558567	0.455798
5831.416707	0.716064	136.425781	-398.925781
5831.418709	0.781310	136.425781	-398.925781
5831.420709	0.778493	8.563423	0.517140
5832.459653	0.756364	420.605469	23.828125
5832.461655	0.780716	420.605469	23.828125
5832.463656	0.778194	8.560136	0.437423
5833.506179	0.583076	137.792969	-410.351562
5833.508185	0.776128	137.792969	-410.351562
5833.510183	0.779685	137.792969	-410.351562
5833.512184	0.777430	8.551725	0.535841
5834.548718	0.522335	420.410156	24.707031
5834.550721	0.759999	420.410156	24.707031
5834.552720	0.780589	420.410156	24.707031
5834.554721	0.778132	8.559453	0.408292
5835.601704	0.780802	122.558594	-489.550781
5835.603705	0.778248	122.558594	-489.550781
5835.605706	0.776629	8.542916	0.517293
5836.637756	0.533122	396.582031	25.976562
5836.639757	0.764098	396.582031	25.976562
5836.641757	0.780805	396.582031	25.976562
5836.643757	0.778359	8.561953	0.470855
5837.687803	0.371722	141.992187	-404.296875
5837.689805	0.666837	141.992187	-404.296875
5837.691805	0.783069	141.992187	-404.296875
5837.693805	0.780561	8.586173	0.558830
5838.726371	0.406510	397.558594	26.171875
5838.728374	0.694711	397.558594	26.171875
5838.730374	0.783064	397.558594	26.171875
5838.732373	0.780335	8.583682	0.417189
5839.780393	0.454104	125.000000	-484.082031
5839.782394	0.726571	125.000000	-484.082031
5839.784394	0.781563	125.000000	-484.082031
5839.786394	0.778800	8.566800	0.533135
5840.816437	0.495588	385.546875	26.269531
5840.820435	0.782704	385.546875	26.269531
5840.822438	0.780341	385.546875	26.269531
5840.824438	0.778587	8.564451	0.416988
5841.872472	0.615736	139.257812	-414.746094
5841.874474	0.780838	139.257812	-414.746094
5841.876473	0.780527	8.585801	0.526223
5842.907019	0.583685	383.203125	27.148437
5842.909021	0.776240	383.203125	27.148437
5842.911021	0.779691	383.203125	27.148437
5842.913021	0.777456	8.552018	0.438117
5843.963058	0.551785	144.628906	-384.765625
5843.965060	0.769514	144.628906	-384.765625
5843.967059	0.780228	144.628906	-384.765625
5843.969060	0.777799	8.555784	0.625349
5844.995030	0.366099	381.835937	27.343750
5844.997032	0.662136	381.835937	27.343750
5844.999032	0.783198	381.835937	27.343750
5845.001032	0.780837	8.589204	0.465506
5846.055914	0.779915	139.160156	-408.886719
5846.057914	0.780648	139.160156	-408.886719
5846.059914	0.778374	8.562112	0.819805
5847.086857	0.489512	380.664062	28.222656
5847.088860	0.745794	380.664062	28.222656
5847.090859	0.780850	380.664062	28.222656
5847.092859	0.778252	8.560774	0.435815
5848.146884	0.779195	137.597656	-414.648437
5848.148884	0.780206	137.597656	-414.648437
5848.150884	0.777874	8.556617	0.509332
5849.175427	0.275624	384.179687	27.832031
5849.177428	0.577231	384.179687	27.832031
5849.179429	0.775237	384.179687	27.832031
5849.183425	0.777486	384.179687	27.832031
5849.185429	0.776030	8.536331	0.449392
5850.233473	0.314716	136.035156	-418.554687
5850.235475	0.614917	136.035156	-418.554687
5850.239472	0.781356	136.035156	-418.554687
5850.241473	0.778643	8.565072	0.527384
5851.267486	0.512526	404.394531	27.832031
5851.269492	0.756434	404.394531	27.832031
5851.271490	0.781036	404.394531	27.832031
5851.273489	0.780923	8.590153	0.419415
5852.326018	0.622736	141.601562	-392.578125
5852.328019	0.781090	141.601562	-392.578125
5852.330020	0.780262	8.582885	0.875797
5853.358043	0.520858	417.675781	27.929687
5853.360045	0.759558	417.675781	27.929687
5853.362045	0.780794	417.675781	27.929687
5853.364044	0.778360	8.561961	0.417979
